# Lines beginning with `#' are comments and are ignored.
# Blank lines are significant: do not add or remove!
# _database_code_amcsd 0009325
#
# sg, abc, angles.
163   23.075 23.075 49.852    90 90 120
# ctl, extra.
0.25 0.75 0.875	0.5 1.0
# limits.
--

# rad/asf, n, limits, comb.
# rads: (1.6 1) -> (1.088 1.26).
Zr4+	24	--	--
# zooms.
1.6:0-0
# comb, bound.
#0@c1	0	0	0.14784
#1@e1	0.30624	0	0.25

# 2theta, fwhm, hkl, mult, val.
25.59	0.2	0 1 2	6	61.91
35.17	0.2	1 0 4	6	96.62
37.80	0.2	1 1 0	6	44.59
43.38	0.2	1 1 3	12	99.82
46.21	0.2	2 0 2	6	1.46
52.58	0.2	0 2 4	6	50.05
57.54	0.2	1 1 6	12	100.00
59.78	0.2	2 1 1	12	2.60
61.17	0.2	1 2 2	12	3.30
61.35	0.2	0 1 8	6	7.58
66.56	0.2	2 1 4	12	39.66
68.25	0.2	3 0 0	6	61.31
70.46	0.2	1 2 5	12	1.31
74.36	0.2	2 0 8	6	1.52
76.94	0.2	1 0 10	6	17.73
77.30	0.2	1 1 9	12	9.57
80.75	0.2	2 2 0	6	2.29
84.41	0.2	2 2 3	12	1.91
86.41	0.2	3 1 2	12	1.40
86.57	0.2	1 2 8	12	3.00
89.07	0.2	0 2 10	6	8.37

#spectrum
3	-0.0791
3.01999998	-0.0781
3.03999996	-0.0781
3.05999994	-0.0791
3.07999992	-0.0781
3.0999999	-0.0782
3.11999989	-0.0791
3.1400001	-0.0791
3.16000009	-0.0781
3.18000007	-0.0782
3.20000005	-0.0771
3.22000003	-0.0781
3.24000001	-0.0781
3.25999999	-0.0791
3.27999997	9.8857
3.29999995	11.5322
3.31999993	13.6182
3.33999991	16.3145
3.3599999	19.8779
3.38000011	24.751
3.4000001	31.9668
3.42000008	45.1269
3.44000006	77.8047
3.46000004	169.7373
3.48000002	395.5088
3.5	814.5752
3.51999998	1346.9082
3.53999996	1693.4258
3.55999994	1550.46
3.57999992	1054.8438
3.5999999	561.8067
3.61999989	250.7793
3.6400001	108.5772
3.66000009	56.0742
3.68000007	36.7891
3.70000005	27.6338
3.72000003	21.8935
3.74000001	17.8076
3.75999999	14.7579
3.77999997	12.419
3.79999995	3.627
3.81999993	-0.0771
3.83999991	-0.0762
3.8599999	-0.0771
3.88000011	-0.0762
3.9000001	-0.0761
3.92000008	-0.0762
3.94000006	-0.0762
3.96000004	-0.0752
3.98000002	-0.0762
4	-0.0761
4.01999998	-0.0762
4.03999996	-0.0762
4.05999994	-0.0772
4.07999992	-0.0761
4.0999999	-0.0762
4.11999989	-0.0762
4.13999987	-0.0762
4.15999985	8.6084
4.17999983	10.0625
4.19999981	11.9101
4.21999979	14.3038
4.23999977	17.4814
4.26000023	21.8643
4.28000021	28.499
4.30000019	41.1963
4.32000017	73.8691
4.34000015	164.7412
4.36000013	378.9053
4.38000011	755.2041
4.4000001	1198.8506
4.42000008	1437.3184
4.44000006	1256.5098
4.46000004	824.1358
4.48000002	427.1367
4.5	205.0772
4.51999998	111.0801
4.53999996	77.5791
4.55999994	69.5791
4.57999992	71.0215
4.5999999	78.2607
4.61999989	92.6494
4.63999987	122.9893
4.65999985	203.4023
4.67999983	422.8008
4.69999981	977.2763
4.71999979	1985.6768
4.73999977	3235.9805
4.76000023	4008.0469
4.78000021	3628.2256
4.80000019	2453.6094
4.82000017	1304.2647
4.84000015	584.1084
4.86000013	255.0527
4.88000011	132.8887
4.9000001	87.5732
4.92000008	65.8857
4.94000006	52.2597
4.96000004	42.5498
4.98000002	35.2959
5	29.7334
5.01999998	8.8985
5.03999996	-0.0732
5.05999994	-0.0752
5.07999992	-0.0732
5.0999999	-0.0732
5.11999989	-0.0743
5.13999987	-0.0742
5.15999985	-0.0742
5.17999983	-0.0742
5.19999981	-0.0723
5.21999979	-0.0732
5.23999977	-0.0733
5.26000023	-0.0723
5.28000021	-0.0733
5.30000019	-0.0742
5.32000017	-0.0723
5.34000015	-0.0742
5.36000013	-0.0733
5.38000011	-0.0732
5.4000001	0.6211
5.42000008	1.1016
5.44000006	1.3076
5.46000004	1.5742
5.48000002	1.9296
5.5	2.4092
5.51999998	3.1064
5.53999996	4.331
5.55999994	7.2334
5.57999992	15.3105
5.5999999	35.5664
5.61999989	74.6944
5.63999987	127.6094
5.65999985	167.7158
5.67999983	162.3125
5.69999981	116.7002
5.71999979	65.3339
5.73999977	30.2539
5.76000023	13.0859
5.78000021	6.4433
5.80000019	4.0235
5.82000017	2.9453
5.84000015	2.3007
5.86000013	1.8505
5.88000011	1.5186
5.9000001	1.2646
5.92000008	0.336
5.94000006	-0.0704
5.96000004	-0.0703
5.98000002	-0.0703
6	-0.0713
6.01999998	-0.0703
6.03999996	-0.0703
6.05999994	-0.0722
6.07999992	-0.0713
6.0999999	-0.0713
6.11999989	-0.0703
6.13999987	-0.0703
6.15999985	-0.0713
6.17999983	-0.0713
6.19999981	-0.0713
6.21999979	-0.0713
6.23999977	-0.0713
6.26000023	-0.0703
6.28000021	-0.0703
6.30000019	-0.0704
6.32000017	-0.0693
6.34000015	-0.0693
6.36000013	-0.0693
6.38000011	-0.0693
6.4000001	-0.0704
6.42000008	-0.0713
6.44000006	-0.0704
6.46000004	-0.0704
6.48000002	-0.0694
6.5	-0.0703
6.51999998	-0.0703
6.53999996	-0.0694
6.55999994	-0.0693
6.57999992	-0.0683
6.5999999	-0.0694
6.61999989	-0.0694
6.63999987	-0.0684
6.65999985	-0.0479
6.67999983	-0.0459
6.69999981	-0.0411
6.71999979	-0.0352
6.73999977	-0.0273
6.76000023	-0.0166
6.78000021	0.001
6.80000019	0.0361
6.82000017	0.166
6.84000015	0.4395
6.86000013	0.9951
6.88000011	1.8896
6.9000001	2.8379
6.92000008	3.2129
6.94000006	2.7207
6.96000004	1.8242
6.98000002	1.1416
7	1.0371
7.01999998	1.7823
7.03999996	3.6387
7.05999994	6.4248
7.07999992	8.9102
7.0999999	9.2138
7.11999989	7.0811
7.13999987	4.1973
7.15999985	2.0176
7.17999983	0.8438
7.19999981	0.3623
7.21999979	0.1866
7.23999977	0.1123
7.26000023	0.0752
7.28000021	0.0468
7.30000019	0.0254
7.32000017	0.0117
7.34000015	-0.043
7.36000013	-0.0674
7.38000011	-0.0664
7.4000001	0.498
7.42000008	0.876
7.44000006	1.0468
7.46000004	1.2695
7.48000002	1.5664
7.5	1.9737
7.51999998	2.5957
7.53999996	3.7959
7.55999994	6.8711
7.57999992	15.2402
7.5999999	34.5049
7.61999989	67.7344
7.63999987	106.4248
7.65999985	127.1924
7.67999983	112.7383
7.69999981	75.8584
7.71999979	40.5478
7.73999977	18.4395
7.76000023	8.1846
7.78000021	4.2803
7.80000019	2.7989
7.82000017	2.0889
7.84000015	1.6455
7.86000013	1.3291
7.88000011	1.0938
7.9000001	0.9121
7.92000008	0.2402
7.94000006	-0.0654
7.96000004	-0.0635
7.98000002	-0.0645
8	-0.0625
8.02000046	-0.0634
8.03999996	-0.0634
8.06000042	-0.0635
8.07999992	-0.0635
8.10000038	-0.0615
8.11999989	-0.0625
8.14000034	-0.0615
8.15999985	-0.0615
8.18000031	0.334
8.19999981	0.5948
8.22000027	0.7128
8.23999977	0.8672
8.26000023	1.0742
8.27999973	1.3662
8.30000019	1.8086
8.31999969	2.6347
8.34000015	4.6416
8.35999966	10
8.38000011	22.4922
8.39999962	44.6758
8.42000008	71.7481
8.43999958	88.333
8.46000004	81.0821
8.47999954	56.543
8.5	31.206
8.52000046	14.5078
8.53999996	6.4199
8.56000042	3.2539
8.57999992	2.123
8.60000038	1.6142
8.61999989	1.2998
8.64000034	1.0908
8.65999985	0.9493
8.68000031	0.8564
8.69999981	0.4326
8.72000027	0.3115
8.73999977	0.5557
8.76000023	3.5625
8.77999973	6.7422
8.80000019	10.5752
8.81999969	15.7275
8.84000015	20.2334
8.85999966	21.7188
8.88000011	20.7549
8.89999962	21.0547
8.92000008	29.0029
8.93999958	57.376
8.96000004	127.747
8.97999954	255.8799
9	416.6973
9.02000046	522.5605
9.03999996	490.5244
9.06000042	350.5225
9.07999992	198.0019
9.10000038	93.7773
9.11999989	41.7393
9.14000034	20.9278
9.15999985	13.1142
9.18000031	9.6172
9.19999981	7.5498
9.22000027	6.1104
9.23999977	5.0469
9.26000023	4.9942
9.27999973	2.1855
9.30000019	1.4121
9.31999969	1.6885
9.34000015	2.0498
9.35999966	2.5342
9.38000011	3.2226
9.39999962	4.3437
9.42000008	6.7676
9.43999958	13.2695
9.46000004	30.0566
9.47999954	64.832
9.5	117.3311
9.52000046	167.4541
9.53999996	180.5576
9.56000042	147.0567
9.57999992	93
9.60000038	47.8027
9.61999989	21.6172
9.64000034	10.164
9.65999985	5.8613
9.68000031	4.1484
9.69999981	3.3007
9.72000027	2.792
9.73999977	2.4736
9.76000023	2.3096
9.77999973	1.4668
9.80000019	1.9814
9.81999969	3.1358
9.84000015	7.1709
9.85999966	15.2627
9.88000011	26.9844
9.89999962	37.4229
9.92000008	39.1631
9.93999958	31.1192
9.96000004	19.2969
9.97999954	9.7793
10	4.3935
10.0200005	2.0361
10.04	1.1416
10.0600004	0.8779
10.0799999	0.752
10.1000004	0.6553
10.1199999	0.6015
10.1400003	0.5811
10.1599998	0.4092
10.1800003	0.5596
10.1999998	0.6816
10.2200003	1.1084
10.2399998	2.2432
10.2600002	4.9785
10.2799997	10.1191
10.3000002	17.0068
10.3199997	22.3682
10.3400002	22.4639
10.3599997	18.0166
10.3800001	13.8945
10.3999996	12.8183
10.4200001	14.8174
10.4399996	17.0811
10.46	16.418
10.4799995	12.9815
10.5	9.1631
10.5200005	7.0859
10.54	8.1357
10.5600004	14.8428
10.5799999	31.9405
10.6000004	63.2617
10.6199999	102.7685
10.6400003	129.3252
10.6599998	123.1504
10.6800003	90.4043
10.6999998	52.6192
10.7200003	25.6377
10.7399998	11.5556
10.7600002	5.6865
10.7799997	3.4531
10.8000002	2.4824
10.8199997	1.9317
10.8400002	1.5518
10.8599997	1.2734
10.8800001	1.0615
10.8999996	0.3086
10.9200001	-0.0498
10.9399996	-0.0489
10.96	-0.0508
10.9799995	-0.0498
11	-0.0498
11.0200005	-0.0489
11.04	-0.0488
11.0600004	-0.0498
11.0799999	0.1612
11.1000004	0.2959
11.1199999	0.3574
11.1400003	0.4375
11.1599998	0.5411
11.1800003	0.6817
11.1999998	0.8877
11.2200003	1.2559
11.2399998	2.1309
11.2600002	4.5166
11.2799997	10.1826
11.3000002	20.7177
11.3199997	34.5586
11.3400002	44.9082
11.3599997	44.3164
11.3800001	33.8574
11.3999996	20.5518
11.4200001	10.4834
11.4399996	5.2148
11.46	3.4258
11.4799995	3.7695
11.5	5.1309
11.5200005	6.4345
11.54	6.5449
11.5600004	5.3487
11.5799999	3.6797
11.6000004	2.2315
11.6199999	1.8838
11.6400003	3.0225
11.6599998	5.9112
11.6800003	10.291
11.6999998	14.3359
11.7200003	15.2793
11.7399998	12.6055
11.7600002	8.293
11.7799997	4.6826
11.8000002	2.8066
11.8199997	2.2763
11.8400002	2.2646
11.8599997	2.0703
11.8800001	1.5752
11.8999996	0.9902
11.9200001	0.545
11.9399996	0.29
11.96	0.0957
11.9799995	0.0528
12	-0.0029
12.0200005	-0.0107
12.04	-0.0175
12.0600004	-0.0205
12.0799999	-0.0214
12.1000004	-0.0312
12.1199999	-0.0312
12.1400003	-0.0274
12.1599998	-0.0098
12.1800003	0.0302
12.1999998	0.0987
12.2200003	0.1709
12.2399998	0.2138
12.2600002	0.1894
12.2799997	0.2021
12.3000002	0.1846
12.3199997	0.1592
12.3400002	0.166
12.3599997	0.1963
12.3800001	0.2481
12.3999996	0.3398
12.4200001	0.5254
12.4399996	1.0078
12.46	2.2647
12.4799995	4.9561
12.5	9.2402
12.5200005	13.7812
12.54	15.7666
12.5600004	13.918
12.5799999	9.6895
12.6000004	5.5273
12.6199999	2.7041
12.6400003	1.3232
12.6599998	0.7558
12.6800003	0.5606
12.6999998	0.4991
12.7200003	0.5
12.7399998	0.5722
12.7600002	0.7969
12.7799997	1.4609
12.8000002	3.0576
12.8199997	6.2617
12.8400002	10.7627
12.8599997	14.5634
12.8800001	15.0449
12.8999996	12.1826
12.9200001	7.9424
12.9399996	4.293
12.96	2.1592
12.9799995	1.1757
13	0.8448
13.0200005	0.9687
13.04	1.2549
13.0600004	2.0693
13.0799999	3.5225
13.1000004	5.7695
13.1199999	8.582
13.1400003	12.1035
13.1599998	16.2139
13.1800003	19.9942
13.1999998	21.5879
13.2200003	21.7822
13.2399998	23.3076
13.2600002	27.4356
13.2799997	31.0771
13.3000002	29.6884
13.3199997	23.5586
13.3400002	16.2617
13.3599997	11.5215
13.3800001	10.0625
13.3999996	9.9873
13.4200001	9.0507
13.4399996	6.8477
13.46	4.3554
13.4799995	2.6758
13.5	1.5957
13.5200005	1.2881
13.54	1.0303
13.5600004	1.0831
13.5799999	1.2354
13.6000004	1.5185
13.6199999	2.0567
13.6400003	3.1582
13.6599998	5.8389
13.6800003	12.3242
13.6999998	25.084
13.7200003	44.0479
13.7399998	62.6299
13.7600002	69.3418
13.7799997	61.4014
13.8000002	46.0371
13.8199997	32.5742
13.8400002	25.0948
13.8599997	20.8018
13.8800001	16.4327
13.8999996	11.4101
13.9200001	6.8467
13.9399996	4.0264
13.96	2.4014
13.9799995	1.8321
14	1.2207
14.0200005	1.2032
14.04	1.1201
14.0600004	1.3398
14.0799999	1.7637
14.1000004	2.8086
14.1199999	5.5722
14.1400003	12.292
14.1599998	24.7266
14.1800003	41.0264
14.1999998	53.3974
14.2200003	53.6015
14.2399998	42.9766
14.2600002	27.9814
14.2799997	15.502
14.3000002	8.0878
14.3199997	4.5703
14.3400002	2.9697
14.3599997	2.0664
14.3800001	1.4326
14.3999996	0.9971
14.4200001	0.7237
14.4399996	0.6377
14.46	0.2734
14.4799995	0.292
14.5	0.1621
14.5200005	0.1954
14.54	0.2412
14.5600004	0.3115
14.5799999	0.4297
14.6000004	0.7236
14.6199999	1.5274
14.6400003	3.4082
14.6599998	6.8671
14.6800003	11.4023
14.6999998	14.8672
14.7200003	14.9756
14.7399998	12.1035
14.7600002	7.9473
14.7799997	4.3964
14.8000002	2.3096
14.8199997	1.544
14.8400002	1.668
14.8599997	2.1954
14.8800001	2.6064
14.8999996	2.5166
14.9200001	2.0058
14.9399996	1.3359
14.96	0.7139
14.9799995	0.4317
15	0.4062
15.0200005	0.6201
15.04	1.0274
15.0600004	1.4209
15.0799999	1.5644
15.1000004	1.4004
15.1199999	1.0723
15.1400003	0.7432
15.1599998	0.6201
15.1800003	0.8408
15.1999998	1.6748
15.2200003	3.3857
15.2399998	5.8281
15.2600002	7.999
15.2799997	8.5098
15.3000002	7.3066
15.3199997	5.2061
15.3400002	3.1953
15.3599997	1.8008
15.3800001	1.0059
15.3999996	0.582
15.4200001	0.3476
15.4399996	0.2168
15.46	0.1426
15.4799995	0.1016
15.5	0.1065
15.5200005	0.0488
15.54	0.0625
15.5600004	0.0478
15.5799999	0.0654
15.6000004	0.0821
15.6199999	0.1142
15.6400003	0.1709
15.6599998	0.3183
15.6800003	0.6933
15.6999998	1.5186
15.7200003	3.1016
15.7399998	4.708
15.7600002	5.7803
15.7799997	5.6348
15.8000002	4.7666
15.8199997	3.7441
15.8400002	3.0186
15.8599997	2.7158
15.8800001	2.9814
15.8999996	4.5967
15.9200001	8.9179
15.9399996	17.6426
15.96	30.0595
15.9799995	41.1875
16	44.1631
16.0200005	38.5293
16.0400009	28.4316
16.0599995	18.6904
16.0799999	12.6748
16.1000004	10.9502
16.1200008	12.5976
16.1399994	15.4482
16.1599998	16.5645
16.1800003	14.7666
16.2000008	11.0898
16.2199993	6.9971
16.2399998	3.625
16.2600002	1.833
16.2800007	0.9004
16.2999992	0.6445
16.3199997	0.6767
16.3400002	0.8584
16.3600006	1.084
16.3799992	1.1553
16.3999996	1.0283
16.4200001	0.7041
16.4400005	0.4394
16.4599991	0.2041
16.4799995	0.0957
16.5	0.0517
16.5200005	0.0479
16.5400009	0.0752
16.5599995	0.1221
16.5799999	0.1856
16.6000004	0.2187
16.6200008	0.205
16.6399994	0.1572
16.6599998	0.1367
16.6800003	0.1259
16.7000008	0.1846
16.7199993	0.2929
16.7399998	0.4238
16.7600002	0.501
16.7800007	0.624
16.7999992	0.5908
16.8199997	0.6504
16.8400002	0.8525
16.8600006	1.3369
16.8799992	2.2822
16.8999996	3.5244
16.9200001	4.6026
16.9400005	5.1075
16.9599991	5.6025
16.9799995	7.375
17	11.8701
17.0200005	19.2266
17.0400009	26.8066
17.0599995	30.4033
17.0799999	29.2969
17.1000004	24.539
17.1200008	17.7324
17.1399994	11.4317
17.1599998	6.6855
17.1800003	3.6211
17.2000008	1.9414
17.2199993	1.1103
17.2399998	0.7334
17.2600002	0.5468
17.2800007	0.4356
17.2999992	0.2149
17.3199997	0.1787
17.3400002	0.0732
17.3600006	0.0235
17.3799992	0.0205
17.3999996	0.002
17.4200001	0.0156
17.4400005	0.0459
17.4599991	0.0977
17.4799995	0.169
17.5	0.211
17.5200005	0.2354
17.5400009	0.2061
17.5599995	0.1797
17.5799999	0.1514
17.6000004	0.1436
17.6200008	0.1689
17.6399994	0.2393
17.6599998	0.416
17.6800003	0.8252
17.7000008	1.6289
17.7199993	2.8838
17.7399998	4.3662
17.7600002	5.6192
17.7800007	6.1924
17.7999992	5.8331
17.8199997	4.8897
17.8400002	3.6904
17.8600006	2.4746
17.8799992	1.5742
17.8999996	0.96
17.9200001	0.6113
17.9400005	0.4531
17.9599991	0.4189
17.9799995	0.4883
18	0.7383
18.0200005	1.4561
18.0400009	3.041
18.0599995	5.6396
18.0799999	8.5254
18.1000004	10.0937
18.1200008	9.5449
18.1399994	7.6709
18.1599998	5.2813
18.1800003	3.3144
18.2000008	2.208
18.2199993	1.9698
18.2399998	2.4551
18.2600002	3.6279
18.2800007	5.1817
18.2999992	6.3047
18.3199997	6.3359
18.3400002	5.4932
18.3600006	4.1914
18.3799992	3.2158
18.3999996	2.9726
18.4200001	3.4775
18.4400005	4.0937
18.4599991	4.1172
18.4799995	3.6074
18.5	2.8496
18.5200005	2.0664
18.5400009	1.4346
18.5599995	0.9609
18.5799999	0.6601
18.6000004	0.4463
18.6200008	0.3457
18.6399994	0.3877
18.6599998	0.6133
18.6800003	1.0088
18.7000008	1.3906
18.7199993	1.5508
18.7399998	1.3975
18.7600002	1.0859
18.7800007	0.7129
18.7999992	0.3955
18.8199997	0.1963
18.8400002	0.0947
18.8600006	0.0655
18.8799992	0.0508
18.8999996	0.0508
18.9200001	0.0479
18.9400005	0.0468
18.9599991	0.0528
18.9799995	0.1416
19	0.1719
19.0200005	0.2666
19.0400009	0.3985
19.0599995	0.6826
19.0799999	1.1953
19.1000004	1.8779
19.1200008	2.5517
19.1399994	3.0664
19.1599998	4.0586
19.1800003	6.0938
19.2000008	9.6015
19.2199993	13.6787
19.2399998	15.7832
19.2600002	14.9424
19.2800007	12.5029
19.2999992	9.5722
19.3199997	7.5411
19.3400002	7.4258
19.3600006	9.501
19.3799992	13.5742
19.3999996	18.7686
19.4200001	23.1455
19.4400005	23.9698
19.4599991	21.5937
19.4799995	17.6669
19.5	12.7695
19.5200005	8.3575
19.5400009	5.1319
19.5599995	3.0957
19.5799999	1.9541
19.6000004	1.6582
19.6200008	1.9004
19.6399994	2.6729
19.6599998	3.5479
19.6800003	3.8701
19.7000008	3.7041
19.7199993	3.2236
19.7399998	2.627
19.7600002	2.4619
19.7800007	3.4404
19.7999992	6.5664
19.8199997	12.625
19.8400002	20.6035
19.8600006	26.8789
19.8799992	27.8477
19.8999996	24.457
19.9200001	18.6152
19.9400005	12.124
19.9599991	6.9121
19.9799995	3.6992
20	2.3057

# vim:ts=8:sw=8
